Data File Name,mSp_scATAC_High Sensitivity DNA Assay_DEDAE00427_2018-04-22_14-42-26.xad
Data File Path,C:\Users\AgilentP302\Documents\Xi\2018-04-22
Date Created,22 April 2018 13:42:26
Date Last Modified,22 April 2018 14:22:51
Version Created,B.02.09.SI725
Version Last Modified,B.02.09.SI725
 
Assay Name,High Sensitivity DNA
Assay Path,C:\Program Files (x86)\Agilent\2100 bioanalyzer\2100 expert\assays\dsDNA
Assay Title,High Sensitivity DNA Assay
Assay Version,1.03
 
Number of Samples Run,11
 
Sample Name,rep6
Number of Events,2121
 
Time,Value
32,5.880737E-02
32.05,5.880737E-02
32.1,5.880737E-02
32.15,5.880737E-02
32.2,5.880737E-02
32.25,5.880737E-02
32.3,5.880737E-02
32.35,5.880737E-02
32.4,5.880737E-02
32.45,5.880737E-02
32.5,5.880737E-02
32.55,5.880737E-02
32.6,5.880737E-02
32.65,5.880737E-02
32.7,5.880737E-02
32.75,5.880737E-02
32.8,5.880737E-02
32.85,5.880737E-02
32.9,5.880737E-02
32.95,5.880737E-02
33,5.880737E-02
33.05,5.880737E-02
33.1,5.880737E-02
33.15,5.880737E-02
33.2,5.880737E-02
33.25,-1.678749E-02
33.3,-4.194522E-02
33.35,-0.0250924
33.4,8.498118E-02
33.45,0.1932998
33.5,0.241279
33.55,0.2353293
33.6,0.1172658
33.65,1.534369E-02
33.7,-4.949723E-02
33.75,-4.427734E-02
33.8,-0.1180806
33.85,-0.16153
33.9,-0.131675
33.95,-0.1122549
34,-9.174506E-02
34.05,3.556284E-02
34.1,3.711474E-02
34.15,2.290163E-02
34.2,-0.1444651
34.25,-7.666779E-02
34.3,-3.242147E-02
34.35,-3.758689E-02
34.4,-8.614703E-02
34.45,-0.1682969
34.5,-0.2594489
34.55,-0.2684758
34.6,-0.2513538
34.65,-0.2005583
34.7,-0.1680155
34.75,-0.2022253
34.8,-0.2277514
34.85,-0.2597309
34.9,-0.209535
34.95,-0.1053524
35,-3.822424E-02
35.05,-1.604418E-02
35.1,-1.447328E-02
35.15,-9.500664E-02
35.2,-0.1692104
35.25,-0.2743484
35.3,-0.2266495
35.35,-0.200272
35.4,-0.1403362
35.45,-0.1373729
35.5,-0.1062949
35.55,-0.1331867
35.6,-0.1599394
35.65,-0.2334463
35.7,-0.2165178
35.75,-0.2572715
35.8,-0.2811656
35.85,-0.2695019
35.9,-0.2858973
35.95,-0.3369839
36,-0.3586426
36.05,-0.3331041
36.1,-0.2572877
36.15,-0.2315063
36.2,-0.2924439
36.25,-0.3261648
36.3,-0.317404
36.35,-0.3035374
36.4,-0.2808439
36.45,-0.2975164
36.5,-0.2840355
36.55,-0.2274549
36.6,-0.2240009
36.65,-0.1324923
36.7,-7.217574E-02
36.75,-0.1657445
36.8,-0.258186
36.85,-0.3023365
36.9,-0.3448128
36.95,-0.3959336
37,-0.5108969
37.05,-0.6007693
37.1,-0.6926494
37.15,-0.7286479
37.2,-0.6936653
37.25,-0.6166127
37.3,-0.5587113
37.35,-0.5003443
37.4,-0.5459647
37.45,-0.6565802
37.5,-0.7551029
37.55,-0.8169195
37.6,-0.7996268
37.65,-0.704475
37.7,-0.6054656
37.75,-0.560142
37.8,-0.6028715
37.85,-0.6572171
37.9,-0.6396862
37.95,-0.6644766
38,-0.7142895
38.05,-0.7461947
38.1,-0.7839157
38.15,-0.7817245
38.2,-0.7874205
38.25,-0.7435504
38.3,-0.6571651
38.35,-0.676922
38.4,-0.6749179
38.45,-0.7242199
38.5,-0.7729121
38.55,-0.7599794
38.6,-0.7000935
38.65,-0.6184786
38.7,-0.631617
38.75,-0.7680023
38.8,-0.8738848
38.85,-0.9121478
38.9,-0.8410042
38.95,-0.7417868
39,-0.6865675
39.05,-0.6858801
39.1,-0.7273972
39.15,-0.7875193
39.2,-0.8243803
39.25,-0.835592
39.3,-0.8418197
39.35,-0.8254059
39.4,-0.7839372
39.45,-0.7404622
39.5,-0.7143801
39.55,-0.7565211
39.6,-0.8066229
39.65,-0.7864441
39.7,-0.8470417
39.75,-0.9061247
39.8,-0.9694676
39.85,-0.995169
39.9,-0.9650822
39.95,-0.9609863
40,-0.8720118
40.05,-0.7189575
40.1,-0.7674814
40.15,-0.8472133
40.2,-0.9282845
40.25,-0.9151281
40.3,-0.952095
40.35,-0.9721881
40.4,-0.9151403
40.45,-0.8505014
40.5,-0.8150482
40.55,-0.8220823
40.6,-0.8158692
40.65,-0.7968508
40.7,-0.8050077
40.75,-0.7950795
40.8,-0.7727135
40.85,-0.8230827
40.9,-0.9322191
40.95,-1.053634
41,-1.133439
41.05,-1.084584
41.1,-1.042434
41.15,-0.9917678
41.2,-0.9408551
41.25,-0.8968319
41.3,-0.9783408
41.35,-1.023823
41.4,-1.028182
41.45,-0.9967673
41.5,-0.9444992
41.55,-0.9865438
41.6,-0.8908794
41.65,-0.8395517
41.7,-0.833585
41.75,-0.8264645
41.8,-0.8220843
41.85,-0.8934793
41.9,-1.025157
41.95,-1.149662
42,-1.13292
42.05,-1.069987
42.1,-0.9482948
42.15,-0.8094437
42.2,-0.727295
42.25,-0.7244362
42.3,-0.7375387
42.35,-0.6838478
42.4,-0.5576773
42.45,-0.2366959
42.5,0.589355
42.55,2.419805
42.6,6.174224
42.65,12.85056
42.7,23.37473
42.75,38.16406
42.8,56.35502
42.85,75.75622
42.9,93.18538
42.95,105.1084
43,108.6235
43.05,102.439
43.1,88.3724
43.15,69.59106
43.2,49.87426
43.25,32.38995
43.3,19.04579
43.35,10.10813
43.4,4.756982
43.45,1.941841
43.5,0.6717448
43.55,0.1547845
43.6,-2.585653E-03
43.65,2.035804E-02
43.7,0.078147
43.75,0.1320118
43.8,0.1345819
43.85,0.1421814
43.9,0.2057182
43.95,0.2322111
44,0.2612336
44.05,0.2807433
44.1,0.2354383
44.15,0.2084528
44.2,0.243352
44.25,0.2178802
44.3,0.3592799
44.35,0.3702001
44.4,0.3907083
44.45,0.3647627
44.5,0.3570941
44.55,0.4205182
44.6,0.4952077
44.65,0.5747296
44.7,0.6325772
44.75,0.528111
44.8,0.410854
44.85,0.3588872
44.9,0.3939106
44.95,0.4898114
45,0.599659
45.05,0.6629943
45.1,0.6706502
45.15,0.6147198
45.2,0.5197057
45.25,0.4585964
45.3,0.4353725
45.35,0.4535841
45.4,0.5308028
45.45,0.6401554
45.5,0.7505363
45.55,0.8211949
45.6,0.8613511
45.65,0.8771724
45.7,0.887247
45.75,0.8848216
45.8,0.9275526
45.85,0.9938926
45.9,1.035471
45.95,1.006359
46,0.9860612
46.05,0.8529906
46.1,0.7536612
46.15,0.5747824
46.2,0.4190953
46.25,0.3206857
46.3,0.1930283
46.35,6.257509E-02
46.4,-2.482276E-02
46.45,-9.051446E-02
46.5,-0.1331906
46.55,-0.2793611
46.6,-0.4393005
46.65,-0.5392001
46.7,-0.6329252
46.75,-0.7166345
46.8,-0.7501964
46.85,-0.7587208
46.9,-0.7776772
46.95,-0.8273138
47,-0.9113026
47.05,-0.9716794
47.1,-0.9633659
47.15,-0.9317256
47.2,-0.9527013
47.25,-1.010529
47.3,-1.105662
47.35,-1.229076
47.4,-1.349295
47.45,-1.313919
47.5,-1.167933
47.55,-1.044536
47.6,-1.050085
47.65,-1.062378
47.7,-1.058492
47.75,-1.080727
47.8,-1.161379
47.85,-1.165749
47.9,-1.195503
47.95,-1.261474
48,-1.361956
48.05,-1.452893
48.1,-1.476009
48.15,-1.477342
48.2,-1.469869
48.25,-1.388258
48.3,-1.261403
48.35,-1.181287
48.4,-1.182876
48.45,-1.212762
48.5,-1.24689
48.55,-1.30277
48.6,-1.31508
48.65,-1.287608
48.7,-1.228389
48.75,-1.167942
48.8,-1.173753
48.85,-1.166158
48.9,-1.17506
48.95,-1.201561
49,-1.193192
49.05,-1.190654
49.1,-1.169786
49.15,-1.073194
49.2,-1.027924
49.25,-1.051481
49.3,-1.024612
49.35,-0.9240479
49.4,-0.7486401
49.45,-0.5836177
49.5,-0.451371
49.55,-0.3609922
49.6,-0.2403204
49.65,-7.385986E-02
49.7,0.2033324
49.75,0.543701
49.8,0.8882487
49.85,1.212979
49.9,1.580979
49.95,2.021828
50,2.450146
50.05,2.809875
50.1,2.980537
50.15,2.893304
50.2,2.712215
50.25,2.454043
50.3,2.153548
50.35,1.880542
50.4,1.600803
50.45,1.322544
50.5,1.180868
50.55,1.050197
50.6,1.13857
50.65,1.123781
50.7,1.0677
50.75,1.000515
50.8,0.9759672
50.85,0.8988936
50.9,0.9229826
50.95,0.9839833
51,1.006999
51.05,1.063209
51.1,1.237218
51.15,1.479224
51.2,1.777585
51.25,2.056153
51.3,2.323056
51.35,2.549141
51.4,2.704332
51.45,2.84919
51.5,3.117761
51.55,3.568544
51.6,4.117909
51.65,4.796392
51.7,5.605794
51.75,6.502064
51.8,7.50027
51.85,8.632321
51.9,9.927843
51.95,11.45985
52,12.86717
52.05,13.99906
52.1,14.82508
52.15,15.09428
52.2,15.06216
52.25,14.88297
52.3,14.69304
52.35,14.63295
52.4,14.76523
52.45,14.89718
52.5,15.16054
52.55,15.00736
52.6,14.43468
52.65,13.41507
52.7,11.85596
52.75,9.935967
52.8,7.93815
52.85,6.018963
52.9,4.333423
52.95,2.941997
53,1.944351
53.05,1.31165
53.1,0.7916891
53.15,0.4140577
53.2,0.136695
53.25,-7.871518E-02
53.3,-0.1341676
53.35,9.711356E-03
53.4,0.1588706
53.45,0.1401932
53.5,-3.162748E-02
53.55,-0.2895342
53.6,-0.4996898
53.65,-0.6696101
53.7,-0.7052621
53.75,-0.7494551
53.8,-0.9394618
53.85,-1.202512
53.9,-1.34544
53.95,-1.475703
54,-1.507376
54.05,-1.487374
54.1,-1.390405
54.15,-1.286601
54.2,-1.272959
54.25,-1.36316
54.3,-1.3997
54.35,-1.420164
54.4,-1.457175
54.45,-1.435906
54.5,-1.418643
54.55,-1.460595
54.6,-1.520298
54.65,-1.569285
54.7,-1.543054
54.75,-1.504542
54.8,-1.533917
54.85,-1.491616
54.9,-1.464218
54.95,-1.513775
55,-1.550849
55.05,-1.586774
55.1,-1.608354
55.15,-1.602692
55.2,-1.547546
55.25,-1.45917
55.3,-1.487266
55.35,-1.491258
55.4,-1.498384
55.45,-1.449801
55.5,-1.405508
55.55,-1.339745
55.6,-1.329178
55.65,-1.292805
55.7,-1.294055
55.75,-1.276658
55.8,-1.209525
55.85,-1.149868
55.9,-1.100173
55.95,-1.078271
56,-1.142116
56.05,-1.232463
56.1,-1.282811
56.15,-1.279157
56.2,-1.120366
56.25,-0.866282
56.3,-0.6726232
56.35,-0.5128697
56.4,-0.4228413
56.45,-0.4569454
56.5,-0.410646
56.55,-0.3043652
56.6,-0.2310311
56.65,-6.854119E-02
56.7,6.192024E-03
56.75,0.230295
56.8,0.3795346
56.85,0.5029665
56.9,0.828429
56.95,1.011645
57,1.227189
57.05,1.40212
57.1,1.526182
57.15,1.651528
57.2,1.77136
57.25,2.01163
57.3,2.269977
57.35,2.515254
57.4,2.863126
57.45,3.282034
57.5,3.744009
57.55,4.246955
57.6,4.778011
57.65,5.362605
57.7,5.957988
57.75,6.623201
57.8,7.43129
57.85,8.314357
57.9,9.337334
57.95,10.4979
58,11.96441
58.05,13.6467
58.1,15.53655
58.15,17.64034
58.2,19.8727
58.25,22.62652
58.3,25.89277
58.35,29.35981
58.4,33.3081
58.45,37.35701
58.5,41.55761
58.55,46.06873
58.6,50.70257
58.65,55.70713
58.7,61.04234
58.75,66.66056
58.8,72.63134
58.85,78.91827
58.9,86.01069
58.95,94.16341
59,102.9996
59.05,112.5054
59.1,122.4798
59.15,132.3362
59.2,142.1912
59.25,152.1544
59.3,161.7769
59.35,170.3465
59.4,177.3015
59.45,182.6678
59.5,187.1738
59.55,191.1181
59.6,194.3471
59.65,196.8698
59.7,199.0288
59.75,201.1026
59.8,204.5623
59.85,208.4307
59.9,213.3716
59.95,218.1018
60,222.0745
60.05,226.3091
60.1,230.8258
60.15,235.383
60.2,239.6871
60.25,242.9086
60.3,245.272
60.35,246.2018
60.4,246.0429
60.45,245.4486
60.5,244.1185
60.55,242.2713
60.6,240.7465
60.65,239.6973
60.7,238.8151
60.75,237.881
60.8,237.0445
60.85,237.0622
60.9,237.8604
60.95,238.47
61,239.3469
61.05,239.8293
61.1,240.3691
61.15,240.6117
61.2,240.6918
61.25,241.2923
61.3,241.0735
61.35,240.5213
61.4,239.8221
61.45,238.2385
61.5,236.3696
61.55,233.6272
61.6,231.0991
61.65,229.186
61.7,227.8158
61.75,227.0943
61.8,226.8275
61.85,226.8581
61.9,226.3456
61.95,225.5099
62,224.6851
62.05,223.8236
62.1,222.8946
62.15,221.7253
62.2,220.6165
62.25,219.5934
62.3,217.945
62.35,216.1289
62.4,214.3264
62.45,211.8673
62.5,210.0634
62.55,208.1675
62.6,206.7462
62.65,205.5289
62.7,204.6244
62.75,203.8002
62.8,202.3841
62.85,201.0469
62.9,200.2622
62.95,198.8751
63,197.1684
63.05,195.4352
63.1,194.5036
63.15,192.9061
63.2,190.7476
63.25,188.9956
63.3,186.9416
63.35,184.767
63.4,183.087
63.45,182.0606
63.5,181.0139
63.55,179.1991
63.6,176.9977
63.65,175.0677
63.7,173.4149
63.75,172.3527
63.8,172.1014
63.85,171.67
63.9,170.4173
63.95,168.4056
64,166.0557
64.05,164.0181
64.1,162.3297
64.15,160.8097
64.2,159.4154
64.25,158.0132
64.3,156.7256
64.35,155.0834
64.4,153.5217
64.45,152.1596
64.5,150.3452
64.55,148.9146
64.6,147.8262
64.65,147.1863
64.7,146.8644
64.75,146.4213
64.8,145.8226
64.85,145.0431
64.9,143.9266
64.95,142.7887
65,141.5107
65.05,139.9079
65.1,138.0511
65.15,136.1875
65.2,134.5275
65.25,132.9667
65.3,131.6478
65.35,130.8116
65.4,130.0552
65.45,128.9241
65.5,127.6728
65.55,126.7181
65.6,126.0108
65.65,125.0415
65.7,123.7708
65.75,123.0639
65.8,121.7942
65.85,120.5052
65.9,119.5148
65.95,119.1586
66,118.2282
66.05,116.9894
66.1,115.7175
66.15,114.7207
66.2,113.6978
66.25,113.0794
66.3,112.2296
66.35,111.2242
66.4,109.9346
66.45,108.8492
66.5,108.2867
66.55,108.04
66.6,108.048
66.65,108.0747
66.7,107.5407
66.75,106.6096
66.8,105.8967
66.85,105.4788
66.9,105.5008
66.95,105.5162
67,105.0541
67.05,104.0774
67.1,102.8089
67.15,101.5541
67.2,101.238
67.25,101.5741
67.3,102.4913
67.35,102.908
67.4,102.2165
67.45,101.9441
67.5,101.353
67.55,100.6302
67.6,100.4136
67.65,100.801
67.7,101.7359
67.75,102.2371
67.8,102.7479
67.85,103.3245
67.9,103.4399
67.95,103.3524
68,103.5261
68.05,103.5748
68.1,103.6169
68.15,103.5133
68.2,103.3932
68.25,103.639
68.3,103.9477
68.35,104.6249
68.4,105.386
68.45,105.8648
68.5,106.8592
68.55,108.3047
68.6,109.4894
68.65,110.891
68.7,112.1729
68.75,112.7533
68.8,113.2122
68.85,113.4736
68.9,114.7386
68.95,115.3419
69,116.2854
69.05,117.7315
69.1,118.7469
69.15,119.018
69.2,119.4682
69.25,120.3576
69.3,121.2311
69.35,122.2949
69.4,123.9968
69.45,126.2827
69.5,128.7868
69.55,131.2856
69.6,133.756
69.65,136.3741
69.7,138.6452
69.75,140.4545
69.8,142.4506
69.85,144.8738
69.9,147.7319
69.95,150.454
70,153.6854
70.05,157.1621
70.1,160.3102
70.15,162.9343
70.2,165.2853
70.25,167.9149
70.3,170.4928
70.35,172.8029
70.4,175.2647
70.45,177.3749
70.5,178.8493
70.55,179.9624
70.6,181.7236
70.65,183.7728
70.7,185.8041
70.75,188.4084
70.8,190.1512
70.85,191.4077
70.9,192.361
70.95,193.1219
71,193.7225
71.05,193.8513
71.1,194.1179
71.15,194.8192
71.2,195.308
71.25,195.6889
71.3,196.6056
71.35,197.5532
71.4,198.0504
71.45,198.6613
71.5,199.0132
71.55,199.2941
71.6,199.333
71.65,199.5435
71.7,200.6842
71.75,202.5542
71.8,204.2808
71.85,206.0175
71.9,207.1995
71.95,207.8627
72,207.377
72.05,207.0053
72.1,207.6259
72.15,208.9164
72.2,210.2149
72.25,211.7065
72.3,212.6625
72.35,213.1594
72.4,213.5636
72.45,213.9556
72.5,214.8501
72.55,216.2752
72.6,217.3173
72.65,218.3966
72.7,219.7117
72.75,221.0609
72.8,222.4578
72.85,223.5808
72.9,225.0042
72.95,227.0585
73,228.7414
73.05,229.7542
73.1,230.8088
73.15,230.8927
73.2,231.3748
73.25,232.3033
73.3,234.0953
73.35,235.7112
73.4,236.7625
73.45,237.7849
73.5,238.9685
73.55,239.6416
73.6,241.0164
73.65,242.1971
73.7,243.0249
73.75,243.8779
73.8,245.0689
73.85,246.3395
73.9,247.2171
73.95,247.099
74,246.4396
74.05,246.272
74.1,246.6473
74.15,247.5314
74.2,248.4545
74.25,248.6065
74.3,248.2052
74.35,247.7699
74.4,247.7826
74.45,248.6029
74.5,248.9642
74.55,248.4568
74.6,248.0233
74.65,247.4474
74.7,247.1
74.75,246.8613
74.8,246.6262
74.85,246.1596
74.9,245.6051
74.95,244.8978
75,245.0874
75.05,245.309
75.1,244.3489
75.15,242.1413
75.2,239.9121
75.25,238.2948
75.3,237.1013
75.35,236.266
75.4,235.0874
75.45,233.4006
75.5,231.9978
75.55,230.4027
75.6,229.5837
75.65,229.401
75.7,229.125
75.75,228.6682
75.8,227.4519
75.85,226.0218
75.9,225.0024
75.95,223.321
76,221.7173
76.05,220.7826
76.1,219.0804
76.15,217.3678
76.2,215.0244
76.25,212.7993
76.3,211.1255
76.35,209.9058
76.4,209.2175
76.45,208.3948
76.5,206.9911
76.55,205.7598
76.6,204.5107
76.65,203.393
76.7,201.4914
76.75,199.6978
76.8,197.2193
76.85,195.5519
76.9,194.2048
76.95,192.8997
77,192.0353
77.05,190.312
77.1,187.9725
77.15,185.9594
77.2,184.1785
77.25,183.0691
77.3,182.7033
77.35,182.5033
77.4,181.8038
77.45,179.8529
77.5,177.809
77.55,176.8086
77.6,175.8313
77.65,175.0278
77.7,174.0543
77.75,172.4441
77.8,170.3513
77.85,168.122
77.9,166.982
77.95,166.8289
78,166.5477
78.05,165.582
78.1,164.2527
78.15,163.2838
78.2,161.8998
78.25,159.7781
78.3,158.5342
78.35,157.682
78.4,157.0382
78.45,156.5835
78.5,156.4792
78.55,155.9371
78.6,154.9845
78.65,154.2186
78.7,153.9594
78.75,153.4717
78.8,152.8857
78.85,152.6534
78.9,152.3626
78.95,152.0429
79,152.1305
79.05,152.6967
79.1,152.8118
79.15,152.4353
79.2,151.7023
79.25,150.8359
79.3,149.889
79.35,149.6328
79.4,150.0387
79.45,150.3563
79.5,150.3547
79.55,150.1224
79.6,150.0973
79.65,149.744
79.7,148.9435
79.75,148.1772
79.8,148.0414
79.85,148.5668
79.9,149.6725
79.95,150.4796
80,150.8927
80.05,150.9765
80.1,150.9806
80.15,151.3271
80.2,152.0813
80.25,152.9364
80.3,153.0814
80.35,152.6132
80.4,152.2376
80.45,152.3545
80.5,153.194
80.55,153.9301
80.6,154.216
80.65,154.8273
80.7,156.2638
80.75,157.8596
80.8,159.4575
80.85,160.5398
80.9,161.3562
80.95,160.5784
81,158.807
81.05,158.9901
81.1,160.932
81.15,162.3906
81.2,163.33
81.25,164.0912
81.3,164.9873
81.35,165.6041
81.4,167.2905
81.45,169.896
81.5,172.1003
81.55,173.1852
81.6,173.372
81.65,172.9975
81.7,173.2491
81.75,174.3219
81.8,176.1777
81.85,178.0627
81.9,179.1604
81.95,179.8774
82,180.5973
82.05,181.7854
82.1,183.7398
82.15,186.0348
82.2,188.0875
82.25,190.0414
82.3,191.4131
82.35,192.4906
82.4,193.3235
82.45,194.9291
82.5,196.5007
82.55,198.3145
82.6,200.3578
82.65,202.3365
82.7,203.9526
82.75,204.9323
82.8,205.8203
82.85,207.6935
82.9,209.9599
82.95,212.4413
83,215.0394
83.05,217.1867
83.1,218.8457
83.15,219.177
83.2,219.2867
83.25,220.3737
83.3,222.1041
83.35,224.1525
83.4,226.5506
83.45,228.7039
83.5,230.439
83.55,232.0745
83.6,233.4776
83.65,235.5133
83.7,237.8479
83.75,240.1942
83.8,242.3406
83.85,243.7912
83.9,244.5833
83.95,245.2249
84,245.4576
84.05,246.1595
84.1,247.3593
84.15,249.3265
84.2,251.7144
84.25,254.0378
84.3,256.1919
84.35,257.8061
84.4,258.9259
84.45,260.1722
84.5,261.4837
84.55,262.7463
84.6,263.6026
84.65,263.8652
84.7,264.1829
84.75,264.6667
84.8,265.5593
84.85,267.4892
84.9,269.7049
84.95,271.1845
85,271.915
85.05,272.1228
85.1,272.6973
85.15,273.8876
85.2,274.653
85.25,275.8984
85.3,277.6854
85.35,278.3417
85.4,278.5175
85.45,277.7023
85.5,276.7971
85.55,276.9137
85.6,276.105
85.65,275.5022
85.7,275.3647
85.75,275.1602
85.8,275.1866
85.85,274.1522
85.9,273.1796
85.95,272.6042
86,271.613
86.05,270.2543
86.1,269.304
86.15,268.3027
86.2,266.4126
86.25,264.5455
86.3,263.335
86.35,262.5208
86.4,261.799
86.45,260.9106
86.5,260.1478
86.55,259.4856
86.6,258.0675
86.65,256.2713
86.7,254.7962
86.75,253.0025
86.8,250.6134
86.85,248.2994
86.9,245.7247
86.95,242.1004
87,239.3292
87.05,238.0103
87.1,238.4235
87.15,238.1573
87.2,236.8875
87.25,235.5713
87.3,233.341
87.35,230.6341
87.4,229.2623
87.45,228.1883
87.5,226.5183
87.55,225.0162
87.6,224.2457
87.65,222.8851
87.7,221.616
87.75,220.9529
87.8,220.5202
87.85,219.813
87.9,218.9113
87.95,218.2224
88,217.0904
88.05,214.9268
88.1,212.8403
88.15,211.2428
88.2,209.5357
88.25,208.7359
88.3,208.659
88.35,209.0351
88.4,209.55
88.45,209.4436
88.5,208.3969
88.55,207.164
88.6,206.7478
88.65,207.1036
88.7,207.9161
88.75,208.0949
88.8,207.7095
88.85,207.2248
88.9,207.1029
88.95,207.8487
89,210.2629
89.05,212.7445
89.1,214.0643
89.15,214.5646
89.2,214.8416
89.25,215.6546
89.3,217.0781
89.35,218.9742
89.4,221.402
89.45,223.4776
89.5,224.5663
89.55,225.7484
89.6,227.245
89.65,228.6745
89.7,231.2651
89.75,234.3213
89.8,236.7304
89.85,238.2098
89.9,238.8869
89.95,239.1405
90,239.9432
90.05,241.5889
90.1,245.304
90.15,248.9038
90.2,250.9063
90.25,251.2843
90.3,252.1283
90.35,252.8736
90.4,254.6057
90.45,256.5647
90.5,258.62
90.55,260.7887
90.6,263.0227
90.65,265.5621
90.7,268.0784
90.75,269.7699
90.8,270.8891
90.85,271.6219
90.9,272.4508
90.95,273.6598
91,274.7826
91.05,275.4027
91.1,275.5321
91.15,275.6122
91.2,276.1526
91.25,277.2038
91.3,278.2469
91.35,278.5939
91.4,278.6904
91.45,278.8357
91.5,278.1013
91.55,276.6083
91.6,273.6993
91.65,272.2904
91.7,271.6568
91.75,270.7164
91.8,270.1342
91.85,269.2552
91.9,267.4647
91.95,266.224
92,265.2813
92.05,264.3814
92.1,262.7772
92.15,259.5943
92.2,255.7587
92.25,252.3287
92.3,250.297
92.35,249.4557
92.4,248.295
92.45,246.4605
92.5,244.037
92.55,240.6268
92.6,236.6109
92.65,232.7991
92.7,229.732
92.75,227.6262
92.8,226.1793
92.85,225.2966
92.9,223.8558
92.95,221.6389
93,218.3748
93.05,214.0352
93.1,211.0546
93.15,208.6747
93.2,206.1853
93.25,203.5842
93.3,200.7627
93.35,198.4522
93.4,196.1167
93.45,193.8416
93.5,192.5018
93.55,190.2829
93.6,188.0415
93.65,186.5303
93.7,185.8662
93.75,185.3708
93.8,184.5687
93.85,182.9834
93.9,180.132
93.95,176.64
94,173.3999
94.05,170.8904
94.1,169.1843
94.15,167.758
94.2,166.3255
94.25,165.3853
94.3,165.0158
94.35,164.1341
94.4,162.6262
94.45,160.0482
94.5,157.3796
94.55,154.7935
94.6,152.0548
94.65,149.2706
94.7,147.1882
94.75,145.2032
94.8,143.1006
94.85,141.0044
94.9,139.2607
94.95,137.5002
95,135.5303
95.05,133.7422
95.1,132.3287
95.15,130.2544
95.2,127.5766
95.25,125.3195
95.3,123.3067
95.35,120.9472
95.4,118.0586
95.45,114.5804
95.5,110.7908
95.55,107.1839
95.6,104.3256
95.65,102.0982
95.7,99.77596
95.75,97.69201
95.8,96.28621
95.85,94.89966
95.9,93.1768
95.95,91.21321
96,89.09626
96.05,86.91827
96.1,84.16205
96.15,81.98
96.2,81.32858
96.25,81.30206
96.3,79.88725
96.35,78.19739
96.4,76.66747
96.45,74.91863
96.5,72.00319
96.55,70.0686
96.6,69.25872
96.65,68.24119
96.7,66.79082
96.75,65.37
96.8,63.96672
96.85,62.37656
96.9,60.8415
96.95,60.05774
97,60.11086
97.05,60.39378
97.1,60.74145
97.15,60.8686
97.2,60.04525
97.25,58.4439
97.3,56.85969
97.35,55.85719
97.4,55.52557
97.45,55.43628
97.5,55.0842
97.55,54.31019
97.6,52.97992
97.65,52.09109
97.7,52.51884
97.75,52.98307
97.8,53.41294
97.85,53.67132
97.9,53.49438
97.95,52.65422
98,52.02467
98.05,51.5055
98.1,51.2759
98.15,50.9658
98.2,51.03309
98.25,51.14415
98.3,51.25624
98.35,51.51364
98.4,51.53825
98.45,51.21873
98.5,50.92506
98.55,50.75067
98.6,50.62778
98.65,50.65568
98.7,50.87942
98.75,51.25038
98.8,51.72514
98.85,52.32158
98.9,52.94126
98.95,53.17783
99,53.30568
99.05,53.45827
99.1,53.20894
99.15,53.26778
99.2,53.29005
99.25,53.00823
99.3,53.17836
99.35,53.61423
99.4,54.1456
99.45,53.9178
99.5,53.07598
99.55,52.95018
99.6,52.67889
99.65,52.62238
99.7,53.32506
99.75,54.46845
99.8,55.59163
99.85,56.59344
99.9,57.28857
99.95,57.45735
100,57.05394
100.05,56.59836
100.1,56.47249
100.15,56.4453
100.2,56.39001
100.25,56.48467
100.3,56.86984
100.35,57.60346
100.4,58.36089
100.45,58.61847
100.5,58.81683
100.55,59.13464
100.6,59.17032
100.65,59.18065
100.7,59.26184
100.75,59.25637
100.8,58.75882
100.85,57.36668
100.9,56.35061
100.95,56.65574
101,57.35546
101.05,58.60916
101.1,59.98226
101.15,60.90389
101.2,61.53585
101.25,61.30168
101.3,61.22145
101.35,62.24393
101.4,63.15877
101.45,63.76649
101.5,64.50554
101.55,65.03689
101.6,65.22289
101.65,65.24377
101.7,65.06119
101.75,64.67549
101.8,64.11129
101.85,63.60591
101.9,63.71312
101.95,64.19068
102,64.52101
102.05,65.04237
102.1,65.66048
102.15,65.96001
102.2,65.88047
102.25,65.79225
102.3,65.19138
102.35,64.75465
102.4,64.89217
102.45,65.02717
102.5,65.88441
102.55,66.9011
102.6,67.8388
102.65,69.00694
102.7,69.13643
102.75,68.39606
102.8,67.13922
102.85,65.62807
102.9,64.82158
102.95,64.5041
103,64.43076
103.05,64.90762
103.1,65.55932
103.15,66.03819
103.2,66.17641
103.25,65.70795
103.3,64.94967
103.35,64.49042
103.4,64.50397
103.45,64.469
103.5,64.08152
103.55,63.12801
103.6,61.85077
103.65,61.15528
103.7,61.1157
103.75,61.6875
103.8,61.96319
103.85,61.39141
103.9,61.07875
103.95,60.6286
104,59.1339
104.05,58.74152
104.1,58.74811
104.15,59.30787
104.2,60.02907
104.25,60.55893
104.3,60.39404
104.35,58.22293
104.4,55.26749
104.45,53.28834
104.5,52.41403
104.55,52.32079
104.6,52.2702
104.65,51.62465
104.7,50.78783
104.75,50.12454
104.8,49.5593
104.85,48.85781
104.9,47.39471
104.95,45.64054
105,44.39503
105.05,43.23665
105.1,42.63095
105.15,42.82562
105.2,42.39743
105.25,40.99949
105.3,38.68481
105.35,36.73321
105.4,35.62417
105.45,34.55705
105.5,34.37989
105.55,34.94001
105.6,34.4723
105.65,33.18872
105.7,30.73964
105.75,27.9492
105.8,25.56295
105.85,23.92744
105.9,23.0287
105.95,22.4165
106,21.78422
106.05,21.53876
106.1,21.24331
106.15,20.87075
106.2,20.48581
106.25,19.34668
106.3,17.3156
106.35,15.13262
106.4,13.54015
106.45,12.59089
106.5,11.76558
106.55,10.96537
106.6,10.2078
106.65,9.32321
106.7,8.716345
106.75,8.813812
106.8,8.984526
106.85,8.601691
106.9,7.806512
106.95,7.217618
107,6.396225
107.05,5.620931
107.1,5.218994
107.15,5.447129
107.2,5.435153
107.25,5.090669
107.3,4.529551
107.35,3.985774
107.4,3.442153
107.45,2.837581
107.5,2.249712
107.55,1.691801
107.6,1.002469
107.65,0.2648921
107.7,-0.2699376
107.75,-0.3357985
107.8,-6.511335E-02
107.85,-6.954315E-03
107.9,-0.2662644
107.95,-0.6033841
108,-1.027358
108.05,-1.656978
108.1,-2.263865
108.15,-2.619364
108.2,-2.457587
108.25,-2.208023
108.3,-2.054121
108.35,-2.103564
108.4,-2.401206
108.45,-3.033595
108.5,-3.60591
108.55,-3.709554
108.6,-3.438987
108.65,-3.264489
108.7,-3.092995
108.75,-3.053579
108.8,-3.189811
108.85,-3.507774
108.9,-3.913163
108.95,-4.168508
109,-4.351353
109.05,-4.492878
109.1,-4.626185
109.15,-4.696997
109.2,-4.58075
109.25,-4.263394
109.3,-3.882391
109.35,-3.556658
109.4,-3.353627
109.45,-3.436976
109.5,-3.903809
109.55,-4.612022
109.6,-5.135284
109.65,-5.348368
109.7,-5.365677
109.75,-5.225697
109.8,-4.976312
109.85,-4.758885
109.9,-4.836338
109.95,-5.151914
110,-5.304675
110.05,-5.30724
110.1,-5.368511
110.15,-5.303417
110.2,-5.144367
110.25,-5.145011
110.3,-5.211313
110.35,-5.388939
110.4,-5.556241
110.45,-5.660803
110.5,-5.668562
110.55,-5.619967
110.6,-5.617492
110.65,-5.787133
110.7,-6.094045
110.75,-6.509268
110.8,-6.858132
110.85,-6.847054
110.9,-6.502697
110.95,-6.05098
111,-5.676394
111.05,-5.509615
111.1,-5.724238
111.15,-6.243662
111.2,-6.662915
111.25,-6.89016
111.3,-6.95104
111.35,-6.899697
111.4,-6.679688
111.45,-6.400374
111.5,-6.255465
111.55,-6.181166
111.6,-6.154323
111.65,-6.347291
111.7,-6.443769
111.75,-6.32688
111.8,-6.070656
111.85,-5.812268
111.9,-5.644411
111.95,-5.600268
112,-5.279634
112.05,-4.66923
112.1,-3.558723
112.15,-1.860424
112.2,0.2898527
112.25,3.442282
112.3,8.216289
112.35,14.96422
112.4,24.21862
112.45,35.77921
112.5,49.07488
112.55,64.28002
112.6,80.38173
112.65,95.65577
112.7,109.8803
112.75,121.1759
112.8,129.211
112.85,133.0495
112.9,134.779
112.95,136.8146
113,138.9992
113.05,139.4615
113.1,136.4986
113.15,129.2646
113.2,116.9785
113.25,101.8173
113.3,87.88945
113.35,76.07076
113.4,66.93058
113.45,60.72939
113.5,55.31945
113.55,48.32965
113.6,38.81034
113.65,28.96895
113.7,20.95941
113.75,14.90523
113.8,11.11012
113.85,9.589594
113.9,8.381466
113.95,5.991522
114,3.490288
114.05,2.077296
114.1,1.193014
114.15,0.1760678
114.2,-0.8877077
114.25,-1.407994
114.3,-2.130368
114.35,-3.020617
114.4,-2.649636
114.45,-1.357858
114.5,-0.4867377
114.55,-0.1049231
114.6,-0.5306646
114.65,-1.581747
114.7,-2.779651
114.75,-3.378465
114.8,-3.113254
114.85,-3.010014
114.9,-3.031281
114.95,-3.353391
115,-3.889866
115.05,-4.378578
115.1,-4.416595
115.15,-4.163181
115.2,-4.053742
115.25,-4.113059
115.3,-4.213581
115.35,-4.569028
115.4,-5.037442
115.45,-5.124292
115.5,-4.928606
115.55,-4.717484
115.6,-4.510453
115.65,-4.260376
115.7,-4.079959
115.75,-4.141272
115.8,-4.214662
115.85,-4.285396
115.9,-4.436934
115.95,-4.564001
116,-4.640359
116.05,-4.762828
116.1,-4.936559
116.15,-5.243659
116.2,-5.323669
116.25,-5.495363
116.3,-5.771366
116.35,-5.983499
116.4,-6.125585
116.45,-6.319374
116.5,-6.625503
116.55,-7.042242
116.6,-7.360819
116.65,-7.61997
116.7,-7.720092
116.75,-7.624847
116.8,-7.550458
116.85,-7.644917
116.9,-7.796145
116.95,-7.904065
117,-7.968432
117.05,-7.934029
117.1,-7.871171
117.15,-7.899534
117.2,-8.093545
117.25,-8.233112
117.3,-8.255547
117.35,-8.069836
117.4,-7.887785
117.45,-7.858502
117.5,-7.923834
117.55,-8.129172
117.6,-8.499312
117.65,-8.514524
117.7,-8.290958
117.75,-8.046257
117.8,-7.852434
117.85,-7.818186
117.9,-7.785392
117.95,-7.883021
118,-7.975946
118.05,-8.007873
118.1,-8.074755
118.15,-8.158923
118.2,-8.206843
118.25,-8.294967
118.3,-8.447487
118.35,-8.598554
118.4,-8.718989
118.45,-8.790791
118.5,-8.755727
118.55,-8.633666
118.6,-8.520644
118.65,-8.441246
118.7,-8.46554
118.75,-8.481039
118.8,-8.467081
118.85,-8.493579
118.9,-8.452154
118.95,-8.41387
119,-8.463365
119.05,-8.45625
119.1,-8.462168
119.15,-8.354833
119.2,-8.33325
119.25,-8.334837
119.3,-8.366522
119.35,-8.44101
119.4,-8.641504
119.45,-8.786436
119.5,-8.884146
119.55,-8.910345
119.6,-8.838259
119.65,-8.721138
119.7,-8.670074
119.75,-8.653808
119.8,-8.716546
119.85,-8.852464
119.9,-8.927873
119.95,-8.930941
120,-8.949601
120.05,-8.99459
120.1,-9.005849
120.15,-8.934628
120.2,-8.822655
120.25,-8.753272
120.3,-8.632633
120.35,-8.614837
120.4,-8.766479
120.45,-8.934975
120.5,-8.915837
120.55,-8.840327
120.6,-8.811943
120.65,-8.826067
120.7,-8.852142
120.75,-8.974569
120.8,-9.0521
120.85,-9.043384
120.9,-8.829291
120.95,-8.737088
121,-8.730318
121.05,-8.735492
121.1,-8.83397
121.15,-8.981259
121.2,-9.060723
121.25,-9.060027
121.3,-9.005281
121.35,-8.961291
121.4,-8.887516
121.45,-8.84641
121.5,-8.888118
121.55,-8.870683
121.6,-8.79408
121.65,-8.711261
121.7,-8.67592
121.75,-8.643935
121.8,-8.681167
121.85,-8.789421
121.9,-8.934907
121.95,-8.963294
122,-9.072663
122.05,-9.079004
122.1,-9.151866
122.15,-9.172234
122.2,-9.207442
122.25,-9.147337
122.3,-9.152164
122.35,-9.215952
122.4,-9.312501
122.45,-9.279751
122.5,-9.31904
122.55,-9.309921
122.6,-9.304129
122.65,-9.206877
122.7,-9.136566
122.75,-9.100121
122.8,-9.076996
122.85,-9.04963
122.9,-9.076294
122.95,-9.103366
123,-9.077163
123.05,-9.040968
123.1,-9.004883
123.15,-9.069397
123.2,-9.189541
123.25,-9.29126
123.3,-9.273953
123.35,-9.257215
123.4,-9.213264
123.45,-9.246729
123.5,-9.233562
123.55,-9.275557
123.6,-9.238795
123.65,-9.181183
123.7,-9.144773
123.75,-9.216353
123.8,-9.34821
123.85,-9.418818
123.9,-9.464133
123.95,-9.566737
124,-9.670979
124.05,-9.664856
124.1,-9.508305
124.15,-9.315867
124.2,-9.196284
124.25,-9.18276
124.3,-9.332688
124.35,-9.477311
124.4,-9.520934
124.45,-9.518925
124.5,-9.451288
124.55,-9.358054
124.6,-9.279467
124.65,-9.17925
124.7,-9.139478
124.75,-9.13973
124.8,-9.157701
124.85,-9.259839
124.9,-9.319482
124.95,-9.339188
125,-9.315419
125.05,-9.225612
125.1,-9.251884
125.15,-9.335112
125.2,-9.439603
125.25,-9.562072
125.3,-9.682038
125.35,-9.680387
125.4,-9.607926
125.45,-9.554237
125.5,-9.506477
125.55,-9.534762
125.6,-9.606115
125.65,-9.568092
125.7,-9.484143
125.75,-9.380768
125.8,-9.317775
125.85,-9.328548
125.9,-9.456778
125.95,-9.724868
126,-9.90604
126.05,-9.827633
126.1,-9.696322
126.15,-9.668162
126.2,-9.625208
126.25,-9.555396
126.3,-9.577423
126.35,-9.619064
126.4,-9.516623
126.45,-9.331499
126.5,-9.428847
126.55,-9.616567
126.6,-9.662258
126.65,-9.692284
126.7,-9.805779
126.75,-9.789227
126.8,-9.72341
126.85,-9.679412
126.9,-9.755474
126.95,-9.75508
127,-9.740086
127.05,-9.740602
127.1,-9.784874
127.15,-9.857947
127.2,-9.939577
127.25,-9.97133
127.3,-9.987936
127.35,-9.953287
127.4,-9.93802
127.45,-10.01016
127.5,-10.10423
127.55,-10.12582
127.6,-10.06775
127.65,-9.981485
127.7,-9.85425
127.75,-9.740553
127.8,-9.780966
127.85,-9.937695
127.9,-10.05373
127.95,-10.09645
128,-10.05123
128.05,-10.17161
128.1,-10.10544
128.15,-9.942721
128.2,-9.882417
128.25,-9.764538
128.3,-9.832215
128.35,-9.9479
128.4,-9.982168
128.45,-10.0196
128.5,-9.920115
128.55,-9.808836
128.6,-9.719398
128.65,-9.589862
128.7,-9.504537
128.75,-9.473794
128.8,-9.580246
128.85,-9.85502
128.9,-10.15913
128.95,-10.37714
129,-10.39846
129.05,-10.26051
129.1,-10.09817
129.15,-10.06641
129.2,-10.22997
129.25,-10.33261
129.3,-10.33716
129.35,-10.25849
129.4,-10.09033
129.45,-9.946407
129.5,-9.934875
129.55,-10.05771
129.6,-10.26861
129.65,-10.28185
129.7,-10.37918
129.75,-10.32928
129.8,-10.1566
129.85,-10.09767
129.9,-10.15766
129.95,-10.26139
130,-10.37469
130.05,-10.42494
130.1,-10.40957
130.15,-10.26162
130.2,-10.22605
130.25,-10.21432
130.3,-10.25378
130.35,-10.31882
130.4,-10.42303
130.45,-10.49731
130.5,-10.53846
130.55,-10.56658
130.6,-10.55679
130.65,-10.50653
130.7,-10.52174
130.75,-10.6731
130.8,-10.70548
130.85,-10.65091
130.9,-10.56751
130.95,-10.47802
131,-10.41673
131.05,-10.40985
131.1,-10.47514
131.15,-10.55092
131.2,-10.50367
131.25,-10.51863
131.3,-10.52861
131.35,-10.58112
131.4,-10.58072
131.45,-10.67836
131.5,-10.78013
131.55,-10.78408
131.6,-10.72869
131.65,-10.62441
131.7,-10.48413
131.75,-10.38222
131.8,-10.22345
131.85,-10.10541
131.9,-10.04248
131.95,-10.04186
132,-10.09258
132.05,-10.22886
132.1,-10.41735
132.15,-10.51228
132.2,-10.51247
132.25,-10.51941
132.3,-10.57201
132.35,-10.6065
132.4,-10.59515
132.45,-10.63165
132.5,-10.69722
132.55,-10.64384
132.6,-10.6831
132.65,-10.79243
132.7,-10.84132
132.75,-10.90655
132.8,-10.89325
132.85,-10.8697
132.9,-10.8067
132.95,-10.72444
133,-10.70349
133.05,-10.74926
133.1,-10.8154
133.15,-10.77402
133.2,-10.76959
133.25,-10.80608
133.3,-10.8185
133.35,-10.85335
133.4,-10.86804
133.45,-10.81828
133.5,-10.69128
133.55,-10.55385
133.6,-10.59011
133.65,-10.73947
133.7,-10.86272
133.75,-11.02378
133.8,-11.12293
133.85,-11.0937
133.9,-10.96867
133.95,-10.74557
134,-10.5483
134.05,-10.38099
134.1,-10.3526
134.15,-10.60232
134.2,-10.84957
134.25,-11.08427
134.3,-11.18168
134.35,-11.22823
134.4,-11.21342
134.45,-11.14569
134.5,-11.16585
134.55,-11.09735
134.6,-11.00909
134.65,-11.00031
134.7,-10.91701
134.75,-11.02968
134.8,-11.10846
134.85,-11.13624
134.9,-11.14884
134.95,-11.1513
135,-11.18784
135.05,-11.21968
135.1,-11.20917
135.15,-11.22077
135.2,-11.17593
135.25,-11.02801
135.3,-10.97258
135.35,-10.99653
135.4,-11.04536
135.45,-11.15061
135.5,-11.22048
135.55,-11.30877
135.6,-11.41958
135.65,-11.38986
135.7,-11.41263
135.75,-11.39207
135.8,-11.41774
135.85,-11.45666
135.9,-11.44178
135.95,-11.47148
136,-11.40113
136.05,-11.29514
136.1,-11.23615
136.15,-11.18401
136.2,-11.21674
136.25,-11.21749
136.3,-11.1669
136.35,-11.11848
136.4,-11.12693
136.45,-11.24305
136.5,-11.3705
136.55,-11.50804
136.6,-11.59419
136.65,-11.53558
136.7,-11.42213
136.75,-11.34962
136.8,-11.32561
136.85,-11.34837
136.9,-11.40989
136.95,-11.45938
137,-11.44042
137.05,-11.31665
137.1,-11.24847
137.15,-11.17344
137.2,-11.08945
137.25,-11.07234
137.3,-11.17153
137.35,-11.30774
137.4,-11.38401
137.45,-11.52417
137.5,-11.62399
137.55,-11.65532
137.6,-11.61443
137.65,-11.58907
137.7,-11.59267
137.75,-11.60088
137.8,-11.56002
137.85,-11.46938
137.9,-11.3905
137.95,-11.28945
138,-11.2299
 
Alignment,On
